Wavelength [nm],0,5,10,50,100,150
200,-0.00638,0.02293,0.0654,0.36493,0.70859,1.04275
201,-0.00351,0.02291,0.06318,0.33837,0.65831,0.96772
202,-0.00222,0.02151,0.0567,0.29894,0.58416,0.86317
203,-0.00075,0.02043,0.05114,0.26744,0.52194,0.77351
204,-0.00099,0.01751,0.04418,0.23766,0.46579,0.695
205,0.0006,0.0161,0.04071,0.21576,0.42161,0.62831
206,-0.00068,0.01562,0.03725,0.19588,0.38435,0.56993
207,0,0.0152,0.03386,0.18015,0.35187,0.52337
208,-0.00061,0.01376,0.03094,0.16551,0.32417,0.48262
209,0.00026,0.01232,0.02808,0.15186,0.29892,0.44784
210,-0.00017,0.01188,0.02667,0.14199,0.27988,0.41962
211,0.00014,0.01155,0.02532,0.13361,0.26384,0.39768
212,-0.00076,0.01022,0.02435,0.1272,0.25128,0.37728
213,-0.00066,0.00924,0.02338,0.12127,0.23978,0.36117
214,0.00083,0.01002,0.02302,0.11808,0.23134,0.34645
215,0.00138,0.01041,0.02204,0.11435,0.22329,0.33507
216,0.00166,0.01018,0.02203,0.11194,0.21693,0.32533
217,0.00056,0.00902,0.02044,0.10785,0.21061,0.31774
218,0.00044,0.00863,0.0207,0.10592,0.20676,0.31156
219,-0.0002,0.00825,0.01975,0.10364,0.20339,0.30577
220,-0.00012,0.00783,0.01964,0.10141,0.2,0.29986
221,-0.00014,0.00794,0.01936,0.09974,0.19689,0.29497
222,0.00074,0.0083,0.01951,0.09791,0.19385,0.29043
223,0.00092,0.00814,0.01966,0.09612,0.19051,0.28659
224,0.00023,0.00755,0.01926,0.09365,0.18809,0.28224
225,-0.00022,0.00727,0.01832,0.09198,0.18581,0.27936
226,-0.00116,0.00658,0.01734,0.09044,0.18335,0.27566
227,-0.00058,0.00735,0.0172,0.08985,0.18095,0.27257
228,-0.00051,0.00699,0.01745,0.08829,0.1779,0.26746
229,-0.00037,0.00679,0.01747,0.08735,0.17467,0.26267
230,-0.00068,0.00637,0.0174,0.08565,0.17179,0.25851
231,-0.00074,0.00632,0.0169,0.08454,0.16868,0.25469
232,-0.00007,0.00737,0.01662,0.08302,0.16654,0.2505
233,0.00038,0.00719,0.01597,0.08122,0.16294,0.24509
234,0.00075,0.00697,0.01569,0.07932,0.15942,0.23907
235,0.00088,0.00632,0.01577,0.07824,0.15621,0.23429
236,0.00065,0.0063,0.01519,0.07681,0.15259,0.22838
237,-0.00023,0.00609,0.01394,0.07483,0.14892,0.22237
238,-0.00021,0.00624,0.01333,0.07242,0.14404,0.21537
239,-0.00039,0.00556,0.01297,0.06986,0.13901,0.20857
240,-0.00031,0.00534,0.01303,0.06733,0.13392,0.20165
241,-0.00105,0.00478,0.0121,0.0644,0.12911,0.19371
242,-0.00078,0.0049,0.01152,0.06185,0.12415,0.1863
243,-0.0003,0.00487,0.01107,0.05952,0.1195,0.17878
244,0.00037,0.00498,0.01147,0.05776,0.1146,0.17213
245,0.00076,0.00519,0.01149,0.0554,0.11026,0.1651
246,0.00064,0.00475,0.01105,0.05302,0.1053,0.15751
247,0.00057,0.00461,0.01039,0.05061,0.10023,0.15038
248,0.00062,0.00439,0.01023,0.04882,0.0956,0.14323
249,0.00065,0.00464,0.01018,0.04663,0.09107,0.13603
250,0.00024,0.00416,0.00941,0.04372,0.08647,0.12852
251,0.0001,0.0037,0.00847,0.04118,0.08159,0.1215
252,0.00001,0.00342,0.00772,0.03888,0.0775,0.11573
253,0.00023,0.00384,0.00749,0.03726,0.07418,0.11017
254,-0.00009,0.00366,0.00713,0.03517,0.07058,0.1049
255,-0.00014,0.00342,0.00671,0.0335,0.06704,0.09937
256,0.00005,0.00311,0.00648,0.03179,0.06359,0.0946
257,-0.00022,0.0033,0.00641,0.03058,0.06069,0.08984
258,-0.00039,0.00369,0.0064,0.02931,0.05772,0.08573
259,-0.00004,0.00393,0.0067,0.02836,0.05508,0.08152
260,-0.00019,0.00355,0.0063,0.02666,0.05222,0.07722
261,0.00039,0.00362,0.00682,0.02588,0.05016,0.0736
262,0.00047,0.0033,0.0064,0.02458,0.04763,0.07048
263,0.00112,0.00345,0.00615,0.02409,0.04577,0.06773
264,0.00075,0.00341,0.00556,0.02308,0.04368,0.06478
265,0.00015,0.00318,0.00517,0.02199,0.04218,0.06209
266,-0.00045,0.00277,0.00492,0.02081,0.04061,0.06008
267,-0.00061,0.00242,0.00475,0.01966,0.03905,0.05846
268,-0.00048,0.00232,0.00487,0.01935,0.0385,0.05762
269,0.00013,0.00266,0.00519,0.01953,0.03838,0.05712
270,0.00014,0.00245,0.00489,0.01948,0.03872,0.057
271,0.00019,0.00238,0.00466,0.01962,0.03885,0.05709
272,0.00004,0.00201,0.0045,0.01997,0.03943,0.05792
273,0.00018,0.00226,0.00461,0.02112,0.04025,0.05951
274,-0.00003,0.0024,0.00473,0.02165,0.04136,0.06134
275,0.00009,0.00288,0.0052,0.02263,0.04303,0.06403
276,0.00013,0.00283,0.00534,0.02326,0.04482,0.06706
277,-0.00006,0.00296,0.00537,0.02434,0.04678,0.07051
278,-0.00043,0.00273,0.00518,0.02512,0.04914,0.07431
279,-0.00022,0.00325,0.00553,0.02686,0.05245,0.07871
280,0.00026,0.00332,0.00574,0.02873,0.05604,0.08351
281,0.0009,0.00389,0.00657,0.03097,0.06014,0.0886
282,0.00077,0.00343,0.00718,0.03239,0.06382,0.09398
283,0.00055,0.00342,0.00753,0.03424,0.06764,0.10015
284,-0.00012,0.00296,0.00736,0.03591,0.07114,0.10626
285,-0.00041,0.00292,0.00723,0.03782,0.07515,0.11282
286,-0.00029,0.00352,0.00781,0.04035,0.08004,0.11995
287,0.00002,0.00388,0.00811,0.04281,0.08517,0.12735
288,-0.00015,0.00384,0.00846,0.0453,0.09037,0.13514
289,-0.00027,0.00347,0.00883,0.04759,0.09536,0.14307
290,-0.00041,0.00355,0.0092,0.05056,0.10084,0.15147
291,-0.00008,0.00408,0.00997,0.05371,0.10641,0.16005
292,-0.00012,0.004,0.0105,0.05631,0.11179,0.16846
293,-0.00004,0.00447,0.01121,0.05886,0.11727,0.17703
294,-0.00004,0.00465,0.01174,0.06163,0.12305,0.18522
295,0.00004,0.00528,0.01209,0.06469,0.12881,0.19352
296,-0.00027,0.00511,0.01227,0.06724,0.13414,0.20138
297,-0.00055,0.00525,0.01279,0.0696,0.13912,0.20876
298,-0.00061,0.00543,0.01349,0.07199,0.14378,0.21571
299,-0.00024,0.00587,0.01422,0.07443,0.14823,0.22241
300,-0.00009,0.00548,0.01459,0.07655,0.15203,0.22872
301,0,0.00559,0.01482,0.07846,0.15605,0.23462
302,0.00012,0.00543,0.01465,0.07983,0.15942,0.23977
303,0.00003,0.00604,0.0145,0.0816,0.16295,0.24446
304,0.00026,0.00624,0.01472,0.08268,0.16494,0.24845
305,-0.00022,0.00628,0.01491,0.08332,0.16682,0.25101
306,-0.0002,0.00626,0.01497,0.08402,0.16821,0.25362
307,-0.00055,0.00613,0.01502,0.0846,0.16989,0.25549
308,-0.00033,0.00611,0.01492,0.08574,0.17101,0.25753
309,-0.00054,0.00597,0.01501,0.08547,0.17131,0.25856
310,-0.00044,0.00591,0.01479,0.08514,0.171,0.25829
311,-0.0001,0.00574,0.01482,0.08472,0.1705,0.25776
312,0.00019,0.00587,0.01473,0.08466,0.17021,0.25671
313,0.00007,0.00545,0.01461,0.08463,0.16942,0.25589
314,-0.00013,0.00538,0.01454,0.08405,0.16831,0.25426
315,-0.00051,0.00497,0.01434,0.08333,0.16701,0.2527
316,-0.00029,0.00544,0.01446,0.0831,0.16624,0.25109
317,-0.00042,0.00567,0.01472,0.08257,0.16545,0.2496
318,0.00069,0.00629,0.01494,0.082,0.16405,0.24741
319,0.00036,0.00579,0.01423,0.08025,0.16169,0.24386
320,0.00027,0.0059,0.01412,0.07886,0.1592,0.2405
321,-0.00044,0.00545,0.01377,0.07756,0.15682,0.23672
322,-0.00027,0.00561,0.01388,0.07683,0.15512,0.23384
323,-0.00014,0.0052,0.01349,0.07611,0.15316,0.23064
324,-0.00015,0.00515,0.01307,0.07488,0.15148,0.22802
325,-0.00033,0.00514,0.01303,0.07423,0.14947,0.22541
326,-0.00014,0.00495,0.01276,0.07326,0.14777,0.2231
327,-0.00007,0.00485,0.01297,0.07251,0.14523,0.22
328,-0.00013,0.00477,0.0124,0.0713,0.14325,0.21668
329,-0.00028,0.00483,0.01221,0.07035,0.14128,0.21313
330,-0.00025,0.00473,0.01191,0.06953,0.13993,0.21034
331,-0.00018,0.00448,0.01207,0.06872,0.1383,0.20809
332,-0.00039,0.00435,0.0118,0.06784,0.13679,0.2058
333,-0.00041,0.00477,0.01179,0.06737,0.13561,0.20391
334,-0.00046,0.00466,0.01157,0.06647,0.13454,0.20215
335,-0.00024,0.00466,0.01166,0.066,0.13345,0.20069
336,-0.00012,0.0038,0.01126,0.06536,0.13209,0.1991
337,0.00014,0.00379,0.01104,0.06522,0.13091,0.19735
338,-0.00002,0.00378,0.01093,0.06446,0.12964,0.19583
339,-0.00006,0.00424,0.01093,0.06398,0.1291,0.19433
340,-0.00007,0.00423,0.01099,0.0635,0.12822,0.19303
341,0.00007,0.00416,0.01083,0.06329,0.12749,0.19168
342,-0.00003,0.00404,0.01076,0.06283,0.1266,0.1906
343,-0.00011,0.00402,0.01058,0.0623,0.12589,0.18955
344,-0.00033,0.00389,0.01036,0.06198,0.12529,0.18858
345,-0.00034,0.00385,0.01006,0.06161,0.12428,0.18739
346,-0.00052,0.00396,0.01003,0.06138,0.12339,0.18635
347,-0.00034,0.00423,0.01028,0.06104,0.12258,0.18518
348,-0.00023,0.0041,0.01044,0.06042,0.12178,0.18391
349,0.00027,0.00435,0.01073,0.05987,0.12099,0.18219
350,0.00029,0.0043,0.0106,0.05918,0.11982,0.18031
351,0.00023,0.00442,0.01048,0.05866,0.1186,0.17819
352,-0.00001,0.00412,0.01015,0.05801,0.11711,0.17609
353,-0.00012,0.00402,0.00996,0.05755,0.11555,0.17412
354,0.00002,0.00406,0.00984,0.05702,0.114,0.17182
355,-0.00006,0.00398,0.00971,0.05623,0.11231,0.1693
356,0.0001,0.00396,0.00956,0.05478,0.11041,0.16605
357,0.00026,0.00391,0.00956,0.05349,0.10812,0.1629
358,0.00035,0.00381,0.00926,0.05222,0.10564,0.15951
359,0.00029,0.00363,0.00901,0.05132,0.10333,0.1564
360,0.00015,0.00337,0.00871,0.05032,0.10094,0.15279
361,0.00003,0.00319,0.00857,0.04911,0.09879,0.14916
362,0.00012,0.00316,0.00824,0.0478,0.09618,0.14495
363,-0.00014,0.0031,0.00788,0.04641,0.09371,0.14109
364,0.00006,0.00327,0.00772,0.04528,0.09114,0.13693
365,0.00003,0.00317,0.0076,0.04411,0.08852,0.13309
366,0.00035,0.00344,0.00767,0.0429,0.08581,0.12928
367,0.00022,0.0032,0.00727,0.04139,0.08289,0.125
368,0.00015,0.00306,0.00705,0.03992,0.08016,0.12056
369,0.00014,0.00253,0.00662,0.03837,0.07741,0.11602
370,-0.00006,0.00231,0.00665,0.03718,0.07483,0.11227
371,-0.00001,0.0024,0.00643,0.03598,0.07224,0.10854
372,-0.00025,0.00224,0.00615,0.03446,0.06885,0.10388
373,-0.00009,0.00221,0.00558,0.03278,0.06557,0.09908
374,-0.00016,0.00193,0.00523,0.03105,0.06233,0.0941
375,0.00005,0.00215,0.00494,0.02982,0.05984,0.09021
376,0,0.00209,0.00493,0.02844,0.05735,0.08629
377,0.00004,0.00196,0.00467,0.0272,0.05473,0.08252
378,0.00001,0.00182,0.00459,0.0259,0.05213,0.07862
379,-0.00004,0.00173,0.00433,0.02455,0.04948,0.07458
380,0.00006,0.00187,0.00415,0.02325,0.047,0.07087
381,-0.00009,0.00172,0.00379,0.022,0.04471,0.06693
382,-0.00012,0.00151,0.00354,0.0207,0.04238,0.06339
383,-0.00008,0.0015,0.00349,0.01953,0.04015,0.05971
384,0,0.00148,0.00342,0.01826,0.03777,0.05636
385,0.00008,0.00154,0.00307,0.01719,0.03521,0.05279
386,0.00001,0.00128,0.00282,0.01596,0.033,0.04948
387,-0.00003,0.00116,0.00266,0.01494,0.03083,0.04643
388,0.00003,0.0011,0.0026,0.01392,0.02893,0.04343
389,-0.00008,0.00118,0.00248,0.01304,0.02677,0.04038
390,-0.00013,0.00116,0.00229,0.01207,0.0248,0.03724
391,-0.00018,0.00114,0.00207,0.01131,0.023,0.03444
392,-0.00014,0.00098,0.00186,0.01036,0.02129,0.03184
393,0.00006,0.00095,0.00177,0.00959,0.01968,0.02949
394,0.00008,0.00085,0.00159,0.00878,0.01822,0.02726
395,0.00031,0.00103,0.00179,0.00836,0.01709,0.02541
396,0.0002,0.00089,0.00163,0.0078,0.01596,0.02344
397,0.00022,0.00088,0.00174,0.00728,0.01469,0.02167
398,0.0001,0.00065,0.00146,0.00671,0.01345,0.01978
399,0.00018,0.00069,0.00133,0.00605,0.01231,0.01812
400,0,0.00049,0.00121,0.00542,0.0114,0.01656
401,-0.00001,0.00038,0.00111,0.00492,0.01042,0.01512
402,-0.00001,0.00025,0.00108,0.00459,0.0096,0.01391
403,0,0.00033,0.00073,0.00427,0.00862,0.01253
404,-0.00007,0.00037,0.00058,0.00368,0.00779,0.01134
405,-0.00022,0.00021,0.00043,0.00322,0.00694,0.01007
406,-0.00004,0.0003,0.00065,0.0029,0.00638,0.00931
407,0.00004,0.00027,0.00071,0.0028,0.00587,0.00855
408,0.00015,0.00035,0.00072,0.00253,0.0054,0.008
409,0.00027,0.0003,0.00068,0.00225,0.00496,0.00729
410,0.00026,0.00041,0.00062,0.00199,0.00465,0.00669
411,0.00025,0.00053,0.00067,0.00193,0.00455,0.00618
412,0.00018,0.00055,0.00078,0.002,0.00441,0.00582
413,-0.00006,0.00036,0.00066,0.00181,0.00407,0.00536
414,-0.00018,0.00027,0.00059,0.00172,0.0036,0.00506
415,-0.00038,0.00018,0.00026,0.00138,0.00325,0.00474
416,-0.00019,0.00018,0.00021,0.00141,0.0031,0.0046
417,-0.0002,0.00018,0.00007,0.00125,0.00312,0.0045
418,0.00006,0.00035,0.00028,0.00147,0.00333,0.00451
419,-0.00001,0.00035,0.00031,0.00147,0.00338,0.00454
420,0.00011,0.00039,0.00042,0.0017,0.00353,0.0047
421,-0.00006,0.00013,0.0003,0.00153,0.00335,0.00471
422,-0.00004,0.00018,0.00035,0.00141,0.00352,0.00491
423,0.00003,0.00027,0.00048,0.00148,0.00373,0.00522
424,0.00016,0.00046,0.00062,0.00169,0.00412,0.0056
425,0.00024,0.00045,0.00066,0.00192,0.00418,0.00591
426,0.00016,0.00033,0.00045,0.00175,0.00412,0.00588
427,0.00004,0.00015,0.00029,0.00172,0.00413,0.00612
428,0.00006,0.00005,0.00026,0.00181,0.00448,0.00648
429,0.00004,0.00006,0.00023,0.00208,0.00483,0.00694
430,0.00008,0.00022,0.00023,0.00231,0.00512,0.0074
431,0.00014,0.00043,0.00035,0.00258,0.00546,0.00796
432,0.00013,0.00053,0.00051,0.00274,0.00583,0.00848
433,-0.00004,0.00036,0.00044,0.00282,0.00606,0.00899
434,-0.00019,0.00018,0.00029,0.0028,0.00633,0.00952
435,-0.00014,0.00011,0.00041,0.00307,0.00691,0.01045
436,0.00005,0.00027,0.00071,0.00352,0.00776,0.01138
437,0.00022,0.00041,0.00095,0.00405,0.00847,0.01237
438,0.00019,0.00046,0.00087,0.00427,0.00887,0.01298
439,0.00021,0.00057,0.00087,0.00454,0.00931,0.01385
440,0.00014,0.00055,0.0008,0.00475,0.00989,0.01455
441,0.00031,0.00061,0.00093,0.00515,0.01048,0.01549
442,0.00025,0.00052,0.00094,0.00542,0.011,0.0162
443,0.00017,0.00049,0.001,0.00569,0.01145,0.01716
444,-0.00006,0.0004,0.00099,0.00583,0.01201,0.01806
445,0.00005,0.00046,0.00113,0.00624,0.01293,0.0192
446,0.00004,0.00051,0.00128,0.00675,0.01371,0.02035
447,0.00011,0.00074,0.00152,0.00731,0.01481,0.02188
448,0.00002,0.00086,0.00164,0.00775,0.01566,0.02338
449,0.00007,0.00083,0.00154,0.00813,0.01676,0.02505
450,-0.00009,0.00071,0.00147,0.00867,0.0177,0.02665
451,-0.00009,0.0006,0.00157,0.00928,0.01884,0.0286
452,-0.0001,0.00074,0.00184,0.00999,0.02012,0.03047
453,0.00009,0.00074,0.00194,0.01055,0.02148,0.03231
454,0.0001,0.00089,0.00203,0.01108,0.02279,0.03403
455,0.00012,0.00083,0.00218,0.01156,0.02388,0.03585
456,0.00011,0.00084,0.00231,0.01223,0.025,0.03762
457,0.00017,0.00082,0.00236,0.01294,0.0262,0.03952
458,0.00017,0.00092,0.00231,0.01372,0.02747,0.0414
459,0.0002,0.0011,0.00238,0.01438,0.02881,0.04353
460,0.00011,0.00108,0.00243,0.0151,0.03034,0.04568
461,-0.00003,0.00118,0.00257,0.01579,0.03214,0.0482
462,-0.00004,0.00125,0.0029,0.01677,0.03415,0.05116
463,-0.00009,0.00136,0.00309,0.0178,0.03622,0.05454
464,0.00002,0.00135,0.00336,0.01898,0.03836,0.05804
465,0.00004,0.00134,0.00344,0.02021,0.04074,0.06158
466,0.00013,0.00145,0.00369,0.0215,0.0434,0.06522
467,0.00006,0.00159,0.00398,0.02273,0.046,0.06883
468,0.00002,0.00165,0.00415,0.02374,0.04829,0.07224
469,0.00001,0.00176,0.00437,0.02488,0.05033,0.07547
470,0.00007,0.00179,0.00448,0.02581,0.05227,0.07855
471,0.00001,0.00198,0.00463,0.02675,0.0542,0.0816
472,-0.00002,0.00188,0.00465,0.02751,0.05604,0.08427
473,-0.00008,0.00193,0.00469,0.02848,0.05781,0.08704
474,-0.0002,0.00175,0.0048,0.02943,0.05958,0.08965
475,-0.00017,0.00193,0.00512,0.03045,0.06158,0.09292
476,-0.0002,0.00197,0.00536,0.03154,0.06391,0.09636
477,-0.00004,0.00222,0.00567,0.03296,0.06662,0.10055
478,-0.00014,0.00226,0.00583,0.03454,0.06975,0.1051
479,-0.00021,0.00249,0.00621,0.0364,0.07349,0.11041
480,-0.0003,0.00248,0.00655,0.03833,0.07755,0.11645
481,-0.00022,0.00257,0.00695,0.04046,0.08179,0.12313
482,0.00009,0.00276,0.00745,0.04279,0.08639,0.13027
483,0.00015,0.00298,0.00779,0.04506,0.091,0.13711
484,0.00016,0.00324,0.00818,0.04729,0.09536,0.14356
485,-0.00001,0.00329,0.00842,0.04919,0.09919,0.14934
486,-0.00003,0.00341,0.00875,0.05089,0.1025,0.15456
487,0.00002,0.00356,0.00901,0.05225,0.10544,0.15907
488,-0.00007,0.00358,0.00905,0.05336,0.10774,0.16271
489,-0.00002,0.00366,0.00914,0.05438,0.10984,0.16583
490,-0.00007,0.00354,0.00926,0.05529,0.11166,0.16859
491,0.00005,0.00367,0.00959,0.05626,0.11358,0.17139
492,-0.00006,0.00371,0.00984,0.05714,0.11543,0.17424
493,-0.00002,0.00381,0.01005,0.05833,0.1177,0.17753
494,-0.00007,0.00399,0.0102,0.05972,0.12041,0.18152
495,-0.00002,0.00407,0.01042,0.06148,0.12397,0.18664
496,-0.00008,0.00427,0.0108,0.06355,0.12819,0.19287
497,-0.00009,0.00424,0.01125,0.06606,0.133,0.20035
498,0.00003,0.00459,0.01186,0.06903,0.1387,0.20904
499,0.00002,0.0048,0.01239,0.07217,0.14491,0.21858
500,-0.00003,0.005,0.01293,0.07534,0.15171,0.22872
501,-0.00015,0.00517,0.0135,0.07869,0.15848,0.23896
502,-0.0002,0.00528,0.01389,0.08175,0.16491,0.24858
503,-0.00018,0.00558,0.01426,0.08463,0.17059,0.2572
504,-0.00023,0.00573,0.01458,0.08685,0.17519,0.26421
505,-0.00007,0.00593,0.01498,0.08882,0.1787,0.26974
506,0.00003,0.00606,0.01529,0.09003,0.18107,0.27332
507,0.00026,0.00606,0.01551,0.09074,0.18245,0.27532
508,0.00016,0.00601,0.01557,0.09092,0.18288,0.27589
509,0.00018,0.0059,0.01547,0.09102,0.18277,0.27574
510,0.00021,0.00592,0.01541,0.09098,0.18253,0.27532
511,0.00023,0.00599,0.01544,0.09097,0.18252,0.27523
512,0.00023,0.00597,0.01555,0.09108,0.18293,0.27579
513,-0.00003,0.00587,0.01555,0.09143,0.18395,0.27745
514,-0.00009,0.00583,0.01569,0.09254,0.18605,0.28065
515,-0.00027,0.0059,0.01601,0.0942,0.18938,0.28575
516,-0.00015,0.00606,0.01639,0.09657,0.19385,0.29266
517,-0.00002,0.00646,0.0169,0.09942,0.19954,0.30125
518,0.00003,0.00682,0.01752,0.10262,0.20604,0.31082
519,-0.00002,0.00715,0.01819,0.10602,0.21289,0.32116
520,-0.00014,0.00705,0.01859,0.10911,0.21955,0.33127
521,-0.00001,0.0072,0.01902,0.11226,0.22625,0.34134
522,0.00012,0.00728,0.01962,0.11521,0.23222,0.35034
523,0.00012,0.00752,0.02001,0.11765,0.23709,0.35772
524,0.00004,0.00768,0.02018,0.11935,0.24031,0.36272
525,-0.00007,0.00771,0.02006,0.11999,0.24189,0.36486
526,-0.0001,0.00785,0.02013,0.12002,0.24165,0.36442
527,0.00003,0.00785,0.0202,0.11896,0.23959,0.36129
528,0.00003,0.00774,0.02002,0.11725,0.2361,0.356
529,0.00004,0.0075,0.01967,0.11485,0.23154,0.34914
530,0.00007,0.00735,0.01929,0.11243,0.22666,0.34156
531,0.00005,0.00727,0.01877,0.10999,0.22149,0.33405
532,0.00019,0.0072,0.01848,0.10777,0.2169,0.32728
533,0.00002,0.00681,0.01792,0.10574,0.21285,0.32151
534,0.00009,0.00659,0.01782,0.10427,0.21008,0.31739
535,-0.00005,0.00645,0.01752,0.10346,0.2086,0.31502
536,-0.00001,0.00672,0.01752,0.10349,0.20841,0.31478
537,-0.00004,0.00682,0.01767,0.10412,0.20961,0.31649
538,0.00003,0.00694,0.01792,0.10529,0.21203,0.3198
539,0.00002,0.00696,0.01832,0.10683,0.21524,0.32461
540,0,0.00711,0.01858,0.10877,0.21907,0.33025
541,-0.00001,0.00719,0.01903,0.11088,0.22302,0.33641
542,-0.00003,0.00726,0.01921,0.11276,0.22696,0.34213
543,-0.00008,0.00728,0.01933,0.11428,0.23013,0.34716
544,-0.00003,0.0074,0.01949,0.11539,0.23241,0.35072
545,0.00002,0.00758,0.01976,0.11604,0.23347,0.35244
546,0.00002,0.00763,0.01981,0.11581,0.23282,0.35137
547,0.00005,0.0077,0.01971,0.11466,0.23032,0.34745
548,-0.00007,0.00733,0.01911,0.11231,0.22572,0.3405
549,-0.00007,0.00712,0.01861,0.10922,0.21964,0.33098
550,-0.00023,0.00669,0.01791,0.10532,0.21175,0.31925
551,-0.00018,0.00643,0.01737,0.10097,0.20299,0.30588
552,-0.00022,0.0061,0.0165,0.09624,0.19346,0.29155
553,-0.00002,0.00585,0.01562,0.09132,0.18384,0.27702
554,0.00003,0.0056,0.01474,0.08666,0.17444,0.2631
555,0.00008,0.00546,0.01412,0.08242,0.16593,0.25048
556,-0.00005,0.00525,0.01358,0.07877,0.1585,0.23932
557,-0.00006,0.00516,0.01314,0.07578,0.15221,0.2298
558,0.00006,0.00503,0.01272,0.07317,0.14702,0.22191
559,0.00011,0.0049,0.01225,0.0709,0.14288,0.21547
560,0.00001,0.00472,0.01179,0.06925,0.13977,0.21064
561,0.00009,0.00467,0.01161,0.06827,0.1377,0.20729
562,0.0001,0.00452,0.01157,0.0678,0.13631,0.20526
563,0.00028,0.00455,0.01158,0.06732,0.13547,0.20395
564,0.00018,0.00444,0.01162,0.06692,0.13478,0.203
565,0.00013,0.00439,0.01148,0.06665,0.13431,0.20235
566,0.00007,0.00428,0.01141,0.06634,0.13374,0.20136
567,0.00007,0.00419,0.0112,0.06586,0.13285,0.20009
568,0.00009,0.00418,0.01103,0.06504,0.13139,0.19801
569,-0.00003,0.00407,0.01083,0.06401,0.12917,0.19481
570,-0.00017,0.004,0.01041,0.06255,0.12607,0.19023
571,-0.00017,0.00396,0.01019,0.0607,0.12223,0.18436
572,-0.00012,0.00389,0.00982,0.05825,0.11744,0.17705
573,-0.00002,0.00374,0.00948,0.05559,0.11202,0.16869
574,-0.00011,0.00343,0.0088,0.05232,0.10577,0.15907
575,-0.00007,0.00321,0.00817,0.04897,0.09918,0.14915
576,-0.0001,0.00299,0.00769,0.04566,0.09236,0.13896
577,-0.00004,0.00276,0.00715,0.04242,0.08543,0.12883
578,0.00004,0.00258,0.00671,0.03932,0.07883,0.1189
579,0.00012,0.00236,0.00601,0.03596,0.07225,0.10908
580,0.00003,0.00206,0.00547,0.03279,0.06608,0.09978
581,-0.00004,0.00189,0.0051,0.02974,0.06025,0.09108
582,-0.00003,0.00174,0.00475,0.02706,0.05507,0.08322
583,0.00004,0.00169,0.00439,0.02464,0.05047,0.07611
584,-0.00004,0.00142,0.00371,0.02259,0.04631,0.06981
585,-0.00017,0.00125,0.00333,0.02076,0.04248,0.06414
586,-0.00004,0.00127,0.0031,0.01939,0.03946,0.05949
587,0.00005,0.00127,0.00299,0.01805,0.03675,0.05537
588,0.00017,0.00122,0.00283,0.01697,0.03461,0.05197
589,0.00014,0.00119,0.00282,0.01607,0.03271,0.04907
590,0.00008,0.00103,0.0026,0.01512,0.03105,0.04644
591,0.00001,0.00091,0.00252,0.01429,0.02965,0.04431
592,0.00002,0.00088,0.00233,0.01354,0.02828,0.04237
593,-0.00006,0.00091,0.00242,0.01321,0.02727,0.04086
594,-0.0001,0.00081,0.00213,0.01271,0.02622,0.03946
595,-0.00024,0.0006,0.00195,0.01237,0.02548,0.03834
596,-0.0002,0.0006,0.00169,0.01194,0.02486,0.03747
597,-0.00017,0.0006,0.00182,0.01182,0.02455,0.03682
598,-0.00009,0.00068,0.00192,0.01169,0.02423,0.03634
599,-0.00004,0.0006,0.00197,0.01151,0.02376,0.03564
600,-0.00009,0.00063,0.00185,0.01126,0.02336,0.03497
601,-0.00009,0.00056,0.00166,0.01096,0.02288,0.03413
602,-0.00013,0.00051,0.00168,0.01085,0.02262,0.0337
603,-0.0002,0.00039,0.00156,0.01065,0.0222,0.03313
604,-0.00023,0.0005,0.00164,0.01042,0.02189,0.03266
605,-0.00017,0.00053,0.00163,0.01023,0.02159,0.03207
606,0.00001,0.00059,0.00185,0.01011,0.02128,0.03174
607,0.00007,0.00047,0.00173,0.01006,0.02095,0.03113
608,0.00012,0.00054,0.00167,0.01,0.02053,0.03084
609,0.00024,0.00074,0.00159,0.01003,0.02035,0.0305
610,0.00016,0.00072,0.00147,0.00979,0.02014,0.03029
611,0.00013,0.00076,0.0015,0.00954,0.02002,0.02989
612,-0.00015,0.00059,0.00129,0.0092,0.01956,0.02928
613,-0.00011,0.00062,0.00135,0.00909,0.01928,0.02901
614,-0.00029,0.00042,0.00109,0.00897,0.01882,0.02861
615,-0.00012,0.00052,0.00133,0.00908,0.0188,0.0285
616,-0.00004,0.00064,0.00147,0.00924,0.01885,0.02829
617,0.0001,0.00074,0.00166,0.0092,0.0189,0.02801
618,0.00011,0.00064,0.00148,0.00904,0.01866,0.02765
619,0.00001,0.00047,0.00135,0.00886,0.01826,0.02718
620,-0.00005,0.00047,0.00134,0.00887,0.01802,0.02721
621,0.00011,0.00071,0.00155,0.00887,0.01807,0.02713
622,0.00009,0.00063,0.00147,0.00874,0.01783,0.02695
623,0.00023,0.00072,0.00148,0.00863,0.01765,0.02658
624,-0.00011,0.0005,0.00121,0.00842,0.01727,0.02626
625,-0.00012,0.00045,0.00108,0.00834,0.0171,0.02609
626,-0.00024,0.00031,0.00094,0.00819,0.01703,0.02599
627,-0.00011,0.00035,0.00107,0.00826,0.01705,0.02603
628,0.00006,0.0006,0.00147,0.00817,0.01727,0.02604
629,0.00015,0.00067,0.00167,0.00821,0.01723,0.0258
630,0.00015,0.00073,0.00176,0.00802,0.01699,0.02539
631,0.00008,0.00066,0.00155,0.00804,0.01669,0.02499
632,0.00005,0.00072,0.00157,0.00786,0.01657,0.02489
633,0.0002,0.00071,0.00161,0.00792,0.01643,0.02466
634,-0.00008,0.00051,0.00135,0.00775,0.01627,0.02439
635,-0.00004,0.00022,0.0011,0.00775,0.01585,0.02398
636,-0.0003,0.00005,0.00085,0.00752,0.01573,0.02352
637,-0.00005,0.00009,0.00116,0.0075,0.01573,0.02357
638,-0.00005,0.00033,0.00117,0.00728,0.01564,0.02332
639,0.0001,0.00041,0.00124,0.00728,0.01578,0.0234
640,0.00001,0.00041,0.001,0.00717,0.0154,0.02299
641,-0.00004,0.00038,0.00098,0.00709,0.01531,0.02259
642,-0.00001,0.0003,0.00082,0.00689,0.01472,0.02221
643,0,0.00036,0.00089,0.00672,0.01459,0.02188
644,0.00003,0.00035,0.00099,0.00687,0.01445,0.02178
645,-0.00012,0.00039,0.00108,0.00689,0.01423,0.02146
646,-0.00012,0.00027,0.00092,0.00689,0.01391,0.02115
647,-0.00019,0.00032,0.00083,0.00653,0.01369,0.02083
648,-0.00002,0.00044,0.00093,0.00652,0.01377,0.02077
649,-0.00003,0.00054,0.00099,0.00639,0.0136,0.02055
650,0.00002,0.00064,0.00115,0.00651,0.01351,0.0204
651,0.00009,0.00066,0.00118,0.00644,0.01321,0.01997
652,0.00008,0.00063,0.00129,0.00639,0.01331,0.01977
653,0.00028,0.00054,0.00126,0.00635,0.01314,0.01951
654,0.00013,0.00043,0.00116,0.00612,0.0129,0.01917
655,0.00017,0.00045,0.0011,0.00607,0.01256,0.01901
656,-0.00007,0.00024,0.00073,0.00585,0.01212,0.01853
657,0,0.00029,0.00061,0.00577,0.01197,0.0182
658,0.00001,0.00038,0.00082,0.00548,0.01171,0.01769
659,0.00001,0.00032,0.00112,0.00521,0.01158,0.01742
660,-0.00015,0.00048,0.00123,0.00522,0.01125,0.01709
661,-0.00009,0.00031,0.00097,0.00516,0.01092,0.01677
662,-0.00006,0.00044,0.00088,0.00531,0.01077,0.0164
663,-0.00015,0.00001,0.00065,0.00513,0.01052,0.01601
664,-0.00015,0.00004,0.00081,0.00514,0.01065,0.01586
665,-0.00015,0.00018,0.00085,0.00487,0.01039,0.01572
666,0.00008,0.00048,0.00107,0.00482,0.01033,0.01547
667,0.00008,0.00055,0.00109,0.00491,0.01001,0.0152
668,-0.00008,0.00048,0.00106,0.00484,0.00988,0.01472
669,-0.00006,0.00029,0.00089,0.00469,0.00975,0.01441
670,-0.00016,0.00025,0.00071,0.00427,0.00948,0.01389
671,-0.00006,0.00014,0.00069,0.00422,0.00934,0.01359
672,-0.00018,0.00023,0.00067,0.00401,0.00906,0.01337
673,-0.00019,-0.00001,0.0005,0.00403,0.00862,0.01319
674,-0.00003,0.00027,0.00067,0.00418,0.00854,0.01306
675,0.0001,0.00017,0.00083,0.00426,0.0083,0.01286
676,0.00008,0.00034,0.00093,0.0042,0.00831,0.0125
677,0.00015,0.0002,0.00089,0.00399,0.0083,0.01232
678,0.00007,0.00023,0.00082,0.00381,0.00818,0.01214
679,0.0001,0.00013,0.0008,0.00363,0.00812,0.01203
680,0.00019,0.00015,0.00078,0.00337,0.00794,0.01173
681,0.00039,0.00034,0.00081,0.00329,0.00771,0.01109
682,0.00026,0.00049,0.00082,0.00309,0.00724,0.01068
683,-0.00003,0.0002,0.00053,0.00286,0.00677,0.01008
684,-0.00007,0.00032,0.00078,0.00294,0.0068,0.00999
685,-0.00012,0.00002,0.00087,0.00292,0.00673,0.00958
686,0.00001,0.00012,0.00114,0.00307,0.00646,0.00948
687,0.00018,-0.00003,0.0009,0.00313,0.00624,0.00927
688,0.00048,0.0003,0.00097,0.00297,0.00607,0.00912
689,0.00048,0.00061,0.00074,0.00304,0.00626,0.00898
690,0.00017,0.00054,0.00061,0.00279,0.00603,0.00881
691,0.00041,0.00048,0.0008,0.00328,0.0061,0.00872
692,0.00036,-0.00001,0.0006,0.00273,0.00564,0.00815
693,0.00053,-0.00002,0.00083,0.00283,0.00571,0.00777
694,0.00025,0,0.00011,0.00234,0.0053,0.00745
695,0.00005,0.00009,0.00019,0.00269,0.00516,0.0074
696,-0.00029,-0.00019,-0.00055,0.00218,0.00442,0.00683
697,-0.00048,-0.00031,-0.0003,0.00204,0.00438,0.00644
698,-0.00018,-0.00024,-0.0001,0.00173,0.00422,0.00636
699,0.00013,0.00013,0.00041,0.00198,0.00453,0.00655
700,0.00023,0.00039,0.0005,0.0022,0.00416,0.00638
701,0.00012,0.00047,0.0005,0.00241,0.00424,0.00615
702,0.00029,0.00047,0.00053,0.00227,0.00398,0.00616
703,0.00038,0.00022,0.00048,0.00199,0.00418,0.00622
704,0.00041,0.00026,0.00054,0.00187,0.00411,0.00608
705,0.00026,0.00023,0.00059,0.00175,0.00419,0.00571
706,0.00004,0.00007,0.00057,0.00171,0.00405,0.00543
707,0.0002,0.00002,0.0005,0.00168,0.00384,0.005
708,-0.00009,-0.00015,0.00013,0.00163,0.00354,0.00469
709,0.00028,0.00017,0.00023,0.00182,0.00372,0.00461
710,0.0003,0.00011,0.00042,0.00166,0.00341,0.00454
711,0.00047,0.0002,0.00084,0.00158,0.00343,0.0043
712,0.00027,0.00021,0.00076,0.00153,0.00307,0.00404
713,-0.00015,0.00005,0.00013,0.00136,0.00306,0.00378
714,-0.00036,0.00009,-0.00007,0.0013,0.00293,0.00389
715,0.00009,0.00036,0.00026,0.00132,0.00303,0.00412
716,0.00032,0.00063,0.00055,0.00113,0.00315,0.00419
717,0.00077,0.00069,0.00041,0.00129,0.00309,0.00443
718,0.00039,0.00049,0.00031,0.00119,0.0026,0.00398
719,0.00057,0.00052,0.00055,0.00128,0.0026,0.00389
720,0.00023,0.00059,0.00059,0.00089,0.00234,0.00325
721,0.00029,0.00046,0.00036,0.00067,0.00244,0.00332
722,0.00005,0.00035,0.00028,0.00084,0.00206,0.00321
723,-0.00019,0,-0.00004,0.00056,0.00177,0.00313
724,0.00003,0.00011,0.00034,0.00114,0.00201,0.00295
725,0.00003,0.00026,0.00016,0.00101,0.0021,0.00282
726,0.00043,-0.00014,0.00041,0.00124,0.00263,0.00281
727,0.00011,-0.00044,-0.00008,0.00066,0.00215,0.00223
728,-0.00027,-0.00083,-0.00058,0.00043,0.00201,0.00173
729,-0.00026,-0.00004,0.00005,0.00077,0.00189,0.00151
730,-0.00028,0.00016,-0.00019,0.00093,0.0019,0.00157
731,-0.00008,0.00029,-0.00012,0.00077,0.0018,0.00191
732,-0.0002,-0.00039,-0.00099,0.00001,0.00128,0.00169
733,-0.00022,-0.00022,-0.00082,-0.00044,0.00112,0.00185
734,0.00025,0.00011,-0.00001,0.00046,0.00139,0.00206
735,-0.00009,0.00029,0.00016,0.00115,0.00143,0.00228
736,-0.00017,-0.00012,0.0003,0.0011,0.00151,0.00228
737,-0.00081,-0.00061,-0.00044,0.00003,0.00115,0.00195
738,-0.00005,-0.00024,-0.00029,-0.00005,0.00103,0.00151
739,0.00023,-0.00026,-0.0002,0.00006,0.00079,0.00131
740,0.00033,-0.00079,-0.00012,0.00031,0.00096,0.00095
741,0.00004,-0.0015,-0.00049,-0.00028,0.00068,0.00105
742,0.00019,-0.00115,-0.00061,-0.00016,0.00092,0.00128
743,0.00063,0.00006,0.00032,0.00046,0.00116,0.00151
744,0.00102,0.00143,0.00128,0.00169,0.0016,0.00218
745,0.00081,0.00125,0.00149,0.00182,0.00142,0.00229
746,0.00046,0.00047,0.00049,0.00098,0.00066,0.00163
747,-0.00051,-0.00016,-0.00056,-0.00029,0.00004,0.00028
748,0.00032,0.00002,-0.00062,-0.00056,0.00047,0.00025
749,-0.00007,0.00015,-0.00066,0.00015,0.00085,0.00048
750,0.00038,-0.00004,0.0001,0.00061,0.00152,0.00112
751,-0.00108,-0.00038,-0.0007,-0.00013,0.00072,0.00037
752,-0.00118,-0.00055,-0.00015,-0.00035,0.00061,0.0009
753,-0.00121,-0.00011,-0.00052,-0.0004,0.00015,0.00066
754,-0.00054,-0.00013,0.00008,0.00056,0.00059,0.00048
755,-0.00004,-0.00036,-0.00076,0.00054,0.00005,0.00007
756,-0.00065,-0.00069,-0.00097,-0.00009,0.00009,0.0003
757,-0.00139,-0.00099,-0.00088,-0.00043,0.00029,-0.00004
758,-0.00085,-0.0001,0.0002,-0.0003,0.00075,0.00007
759,-0.00002,0.00034,0.00084,0.00033,0.00144,0.00109
760,0.00204,0.0021,0.00179,0.00176,0.00228,0.00281
761,0.00156,0.00245,0.00151,0.00106,0.0023,0.00311
762,0.00126,0.00209,0.00112,0.00089,0.00161,0.00142
763,0.00055,0.00155,0.00112,-0.00033,0.00134,0.00121
764,0.00082,0.00089,0.00165,0.00026,0.00154,0.00079
765,0.00132,0.00103,0.0025,0.00104,0.00194,0.00249
766,0.00052,-0.00033,0.0014,0.00071,0.00046,0.00104
767,-0.00009,-0.00045,0.00077,0.00053,0.00032,0.00024
768,-0.00048,-0.0003,0.00049,0.00093,0.00076,0.00059
769,-0.00061,0.00033,0.00075,0.00153,0.00129,0.00059
770,-0.00063,0.00008,0.00019,0.00081,0.00054,0.00122
771,0.00036,0.00005,0.00047,0.00037,0.00007,-0.00023
772,0.00085,0.00061,0.00038,0.00049,0.00015,0.00133
773,0.00159,0.00074,0.00104,0.00061,0.00027,0.00132
774,0.0005,0.0002,-0.0003,-0.0003,0.00006,0.00122
775,0.0005,-0.0007,-0.00033,-0.00093,-0.00045,0.00012
776,0.0004,0.00011,-0.00091,-0.00043,-0.0001,0.00083
777,0.00004,-0.00018,-0.00019,-0.00054,0,0.00057
778,-0.00066,0.00036,-0.00006,-0.0002,0.00083,0.00051
779,-0.00093,-0.00031,0.00091,0.00001,0.001,0
780,-0.00061,0.00017,0.00098,0.00054,0.00106,0.00013
781,0.00044,0.0007,0.00088,0.0006,0.00086,0.00057
782,0.00087,0.00147,0.0011,0.00091,0.00096,0.00106
783,0.00063,0.00143,0.0003,0.00055,0.00079,0.00096
784,-0.00015,0.00106,0.00005,-0.00007,0.00069,0.00028
785,-0.00051,0.00002,-0.00053,-0.00045,0.00009,-0.00066
786,-0.00038,-0.00037,-0.00046,-0.00027,0.00014,-0.00069
787,-0.00025,-0.00087,0.00023,0.00011,-0.00032,-0.00096
788,-0.00059,-0.00164,-0.00043,-0.00058,-0.00041,-0.00096
789,-0.00038,-0.00143,-0.00015,-0.00044,-0.00036,-0.00087
790,-0.00042,-0.00134,-0.00037,0.00009,0.00035,0.00023
791,-0.00043,-0.00079,0.00023,0.00013,-0.0001,-0.00039
792,-0.00147,-0.00065,0.00005,-0.00028,-0.00143,0.00015
793,-0.00125,-0.00021,0.0001,-0.00029,-0.00145,0.0006
794,-0.00073,0.00016,-0.00005,0.00035,0.00023,0.00217
795,0.00094,-0.00005,0.00001,0.00034,0.00139,0.0018
796,0.00069,-0.00009,-0.00084,0.0007,0.00094,0.00057
797,0.00106,-0.00016,-0.00082,0.00127,0.00062,-0.00061
798,0.00066,0.00075,0.00015,0.00244,0.00049,-0.0004
799,0.00139,0.0007,0.00164,0.00191,0.00076,0.00004
800,0.0016,0.00125,0.00257,0.00168,0.00044,0.00075
