   h    k    l      d(A)      F(real)      F(imag)          |F|         2theta          I    M ID(lambda) Phase
   1    1    0   3.114169    42.395055     5.605690      42.7641   28.64177  100.00000    4     1     1
   1    0    1   2.408320    28.829371     5.548061      29.3584   37.30747   53.17003    8     1     1
   2    0    0   2.202050    18.841787     5.491994      19.6259   40.95124    9.66251    4     1     1
   1    1    1   2.113025   -17.963811    -0.113695      17.9642   42.75938   14.69911    8     1     1
   2    1    0   1.969573    11.441530     0.076488      11.4418   46.04569    5.04663    8     1     1
   2    1    1   1.625123    34.104203     5.624549      34.5649   56.58755   57.64960   16     1     1
   2    2    0   1.557084    38.366051     5.667928      38.7825   59.30051   16.32502    4     1     1
   0    0    2   1.438250    41.830636     5.719385      42.2198   64.76637    7.96192    2     1     1
   3    1    0   1.392699    22.998910     5.554233      23.6601   67.15938    9.25634    8     1     1
   2    2    1   1.369335    -5.420608    -0.051457      5.42085   68.46233    0.46679    8     1     1
   3    0    1   1.307589    36.720108     5.701037        37.16   72.18589   19.72202    8     1     1
   1    1    2   1.305722    27.142857     5.605690      27.7157   72.30535   10.93600    8     1     1
   3    1    1   1.253506     5.944883     0.062238      5.94521   75.83314    0.92109   16     1     1
   3    2    0   1.221478    -3.884920    -0.041871      3.88515   78.19276    0.18661    8     1     1
   2    0    2   1.204160    15.025427     5.491994      15.9977   79.53832    3.07822    8     1     1
   2    1    2   1.161526     6.706583     0.076488      6.70702   83.08511    1.01548   16     1     1
   3    2    1   1.124309    15.534754     5.506191      16.4817   86.49146    5.84107   16     1     1
   4    0    0   1.101025    24.396321     5.616471      25.0345   88.79266    3.28297    4     1     1
   4    1    0   1.068151    -9.453156    -0.118358       9.4539   92.29890    0.90999    8     1     1
   2    2    2   1.056513    27.558039     5.667928      28.1349   93.62089    8.00009    8     1     1
   3    3    0   1.038056    28.448167     5.685314      29.0107   95.81379    4.21808    4     1     1
   4    1    1   1.001342    19.840597     5.582678      20.6111  100.57574    8.50698   16     1     1
   3    1    2   1.000503    17.708792     5.554233      18.5594  100.69149    6.89939   16     1     1
   4    2    0   0.984787    18.728791     5.571619        19.54  102.92421    3.85183    8     1     1
   3    3    1   0.976422    -2.470753    -0.034070      2.47099  104.16518    0.06197    8     1     1
   1    0    3   0.936886    16.245369     5.548061      17.1666  110.60877    3.15237    8     1     1
   4    2    1   0.931698     5.503010     0.079625      5.50359  111.53591    0.65473   16     1     1
   3    2    2   0.931022    -2.891632    -0.041871      2.89194  111.65827    0.18103   16     1     1
   1    1    3   0.916381    -7.728628    -0.113695      7.72946  114.40400    0.66927    8     1     1
   4    3    0   0.880820     4.238101     0.064791       4.2386  121.97691    0.22714    8     1     1
   4    0    2   0.874260    19.672096     5.616471      20.4582  123.54689    5.44974    8     1     1
   5    1    0   0.863715    20.565734     5.633858      21.3235  126.21100    6.24367    8     1     1
   2    1    3   0.862102    19.933027     5.624549      20.7114  126.63515   11.88514   16     1     1
   4    1    2   0.857527    -7.549845    -0.118358      7.55077  127.86495    1.62151   16     1     1
